"Magnitude of transfer function Hx(f)= X(f)/U(f)"							
"Measured"		"Fitted without creep"		"Fitted"		"Imported"	
"Frequency [Hz]"	"[mm/V]"	"Frequency [Hz]"	"[mm/V]"	"Frequency [Hz]"	"[mm/V]"	"Frequency [Hz]"	"[mm/V]"
5.12695	0.548229	5.12695	0.471105	5.12695	0.529789		
5.49316	0.55686	5.49316	0.471054	5.49316	0.528071		
5.85938	0.541186	5.85938	0.470998	5.85938	0.52645		
6.22559	0.543823	6.22559	0.470939	6.22559	0.524915		
6.5918	0.551815	6.5918	0.470876	6.5918	0.523455		
6.95801	0.550812	6.95801	0.470809	6.95801	0.522061		
7.32422	0.537907	7.32422	0.470737	7.32422	0.520726		
7.69043	0.535515	7.69043	0.470662	7.69043	0.519444		
8.05664	0.521055	8.05664	0.470582	8.05664	0.518209		
8.42285	0.543304	8.42285	0.470497	8.42285	0.517017		
8.78906	0.523951	8.78906	0.470408	8.78906	0.515863		
9.15527	0.532744	9.15527	0.470315	9.15527	0.514744		
9.52148	0.509835	9.52148	0.470217	9.52148	0.513657		
9.8877	0.508298	9.8877	0.470113	9.8877	0.512598		
10.2539	0.515485	10.2539	0.470005	10.2539	0.511566		
10.6201	0.534191	10.6201	0.469892	10.6201	0.510558		
10.9863	0.517116	10.9863	0.469774	10.9863	0.509572		
11.3525	0.529251	11.3525	0.46965	11.3525	0.508605		
11.7188	0.521118	11.7188	0.469521	11.7188	0.507657		
12.085	0.525712	12.085	0.469386	12.085	0.506726		
12.4512	0.523494	12.4512	0.469246	12.4512	0.50581		
12.8174	0.515559	12.8174	0.469099	12.8174	0.504909		
13.1836	0.513146	13.1836	0.468947	13.1836	0.504019		
13.5498	0.500896	13.5498	0.468789	13.5498	0.503142		
13.916	0.520668	13.916	0.468624	13.916	0.502275		
14.2822	0.506308	14.2822	0.468453	14.2822	0.501418		
14.6484	0.520828	14.6484	0.468275	14.6484	0.500569		
15.0146	0.495071	15.0146	0.468091	15.0146	0.499729		
15.3809	0.496986	15.3809	0.467899	15.3809	0.498895		
15.7471	0.505451	15.7471	0.467701	15.7471	0.498067		
16.1133	0.496566	16.1133	0.467495	16.1133	0.497245		
16.4795	0.500106	16.4795	0.467282	16.4795	0.496428		
16.8457	0.496173	16.8457	0.467062	16.8457	0.495615		
17.2119	0.4984	17.2119	0.466834	17.2119	0.494806		
17.5781	0.497434	17.5781	0.466597	17.5781	0.493999		
17.9443	0.488349	17.9443	0.466353	17.9443	0.493195		
18.3105	0.499864	18.3105	0.4661	18.3105	0.492392		
18.6768	0.482944	18.6768	0.465839	18.6768	0.491591		
19.043	0.489145	19.043	0.46557	19.043	0.490791		
19.4092	0.509775	19.4092	0.465291	19.4092	0.489991		
19.7754	0.503805	19.7754	0.465004	19.7754	0.489191		
20.1416	0.485062	20.1416	0.464707	20.1416	0.48839		
20.874	0.464928	20.874	0.464085	20.874	0.486785		
21.2402	0.480437	21.2402	0.46376	21.2402	0.48598		
21.6064	0.457141	21.6064	0.463425	21.6064	0.485173		
22.3389	0.459421	22.3389	0.462723	22.3389	0.48355		
22.7051	0.468905	22.7051	0.462357	22.7051	0.482734		
23.0713	0.473925	23.0713	0.46198	23.0713	0.481914		
23.8037	0.478102	23.8037	0.461193	23.8037	0.480261		
24.1699	0.4829	24.1699	0.460783	24.1699	0.479428		
24.9023	0.471254	24.9023	0.459927	24.9023	0.477747		
25.6348	0.466815	25.6348	0.459024	25.6348	0.476042		
26.001	0.467969	26.001	0.458555	26.001	0.475181		
26.7334	0.454061	26.7334	0.457578	26.7334	0.473439		
27.4658	0.44082	27.4658	0.45655	27.4658	0.471668		
27.832	0.447526	27.832	0.456017	27.832	0.470772		
28.5645	0.444953	28.5645	0.454909	28.5645	0.468956		
29.2969	0.449309	29.2969	0.453748	29.2969	0.467107		
30.0293	0.467655	30.0293	0.45253	30.0293	0.465223		
30.7617	0.449174	30.7617	0.451255	30.7617	0.463303		
31.4941	0.458538	31.4941	0.449922	31.4941	0.461346		
32.2266	0.437647	32.2266	0.44853	32.2266	0.459349		
32.959	0.446312	32.959	0.447077	32.959	0.457312		
33.6914	0.44087	33.6914	0.445563	33.6914	0.455233		
34.4238	0.43535	34.4238	0.443987	34.4238	0.453111		
35.1563	0.434564	35.1563	0.442348	35.1563	0.450946		
35.8887	0.449702	35.8887	0.440646	35.8887	0.448737		
36.9873	0.441694	36.9873	0.437973	36.9873	0.445337		
37.7197	0.427979	37.7197	0.43611	37.7197	0.443013		
38.8184	0.435169	38.8184	0.433195	38.8184	0.43944		
39.5508	0.43004	39.5508	0.431171	39.5508	0.437		
40.6494	0.40473	40.6494	0.428014	40.6494	0.433252		
41.3818	0.405442	41.3818	0.425829	41.3818	0.430694		
42.4805	0.402959	42.4805	0.422433	42.4805	0.426771		
43.2129	0.423221	43.2129	0.42009	43.2129	0.424097		
44.3115	0.407149	44.3115	0.416461	44.3115	0.420002		
45.4102	0.405167	45.4102	0.412695	45.4102	0.415807		
46.5088	0.388459	46.5088	0.408798	46.5088	0.411515		
47.6074	0.387426	47.6074	0.404773	47.6074	0.407129		
48.7061	0.397959	48.7061	0.400627	48.7061	0.402654		
49.8047	0.383206	49.8047	0.396363	49.8047	0.398093		
50.9033	0.376906	50.9033	0.39199	50.9033	0.393451		
52.3682	0.392767	52.3682	0.385999	52.3682	0.387146		
53.4668	0.387567	53.4668	0.381395	53.4668	0.382338		
54.5654	0.384379	54.5654	0.376705	54.5654	0.377468		
56.0303	0.356092	56.0303	0.37033	56.0303	0.37089		
57.1289	0.364454	57.1289	0.365469	57.1289	0.365902		
58.5938	0.35418	58.5938	0.358896	58.5938	0.359189		
60.0586	0.339516	60.0586	0.352236	60.0586	0.35242		
61.5234	0.347674	61.5234	0.345508	61.5234	0.345612		
62.6221	0.337418	62.6221	0.340429	62.6221	0.340489		
64.0869	0.313567	64.0869	0.333629	64.0869	0.333649		
65.918	0.344688	65.918	0.325106	65.918	0.325103		
67.3828	0.309751	67.3828	0.318292	67.3828	0.318288		
68.8477	0.308001	68.8477	0.311498	68.8477	0.311507		
70.3125	0.306247	70.3125	0.30474	70.3125	0.304771		
72.1436	0.298676	72.1436	0.296363	72.1436	0.296433		
73.9746	0.289939	73.9746	0.288087	73.9746	0.288206		
75.4395	0.27249	75.4395	0.281553	75.4395	0.281716		
77.2705	0.286643	77.2705	0.27351	77.2705	0.273732		
79.1016	0.281884	79.1016	0.265621	79.1016	0.265903		
80.9326	0.278402	80.9326	0.257899	80.9326	0.258241		
82.7637	0.2639	82.7637	0.250355	82.7637	0.250755		
84.9609	0.257115	84.9609	0.241549	84.9609	0.242017		
86.792	0.241337	86.792	0.234423	86.792	0.234944		
88.623	0.243173	88.623	0.227497	88.623	0.228066		
90.8203	0.212479	90.8203	0.219451	90.8203	0.220072		
93.0176	0.20388	93.0176	0.211696	93.0176	0.212363		
95.2148	0.201491	95.2148	0.204231	95.2148	0.204938		
97.4121	0.206029	97.4121	0.197053	97.4121	0.197793		
99.6094	0.189248	99.6094	0.190159	99.6094	0.190926		
102.173	0.20365	102.173	0.182464	102.173	0.183255		
104.37	0.181738	104.37	0.176159	104.37	0.176966		
106.934	0.162485	106.934	0.169132	106.934	0.169951		
109.131	0.184305	109.131	0.16338	109.131	0.164205		
111.694	0.155311	111.694	0.156974	111.694	0.1578		
114.624	0.144427	114.624	0.150035	114.624	0.150859		
117.188	0.149313	117.188	0.144282	117.188	0.145099		
119.751	0.131995	119.751	0.138811	119.751	0.139618		
122.681	0.13712	122.681	0.132885	122.681	0.133679		
125.61	0.133924	125.61	0.127289	125.61	0.128065		
128.54	0.120367	128.54	0.122001	128.54	0.122759		
131.47	0.135627	131.47	0.117004	131.47	0.117742		
134.399	0.0998614	134.399	0.112279	134.399	0.112995		
137.695	0.110335	137.695	0.107268	137.695	0.107959		
140.991	0.121019	140.991	0.102557	140.991	0.103223		
144.287	0.103833	144.287	0.0981252	144.287	0.0987653		
147.583	0.108961	147.583	0.0939531	147.583	0.0945676		
150.879	0.111684	150.879	0.0900224	150.879	0.0906116		
154.541	0.0816025	154.541	0.0859175	154.541	0.0864793		
158.203	0.0744221	158.203	0.0820687	158.203	0.0826037		
161.865	0.067673	161.865	0.0784564	161.865	0.0789656		
165.527	0.0912765	165.527	0.0750627	165.527	0.075547		
169.556	0.0853245	169.556	0.0715627	169.556	0.0720208		
173.584	0.0672896	173.584	0.0682877	173.584	0.0687209		
177.612	0.0518767	177.612	0.0652197	177.612	0.0656293		
181.641	0.0681166	181.641	0.0623425	181.641	0.0627296		
186.035	0.0578876	186.035	0.0594037	186.035	0.0597678		
190.43	0.0426533	190.43	0.0566568	190.43	0.0569992		
194.824	0.0450037	194.824	0.054086	194.824	0.0544081		
199.219	0.045013	199.219	0.051677	199.219	0.0519802		
203.979	0.0559001	203.979	0.0492351	203.979	0.0495191		
208.74	0.0487593	208.74	0.0469533	208.74	0.0472194		
213.501	0.0429228	213.501	0.0448184	213.501	0.0450678		
218.628	0.0324978	218.628	0.0426697	218.628	0.0429025		
223.755	0.0340167	223.755	0.0406639	223.755	0.0408814		
228.882	0.0463674	228.882	0.0387891	228.882	0.0389923		
234.375	0.048813	234.375	0.0369133	234.375	0.0371025		
239.868	0.0273111	239.868	0.0351633	239.868	0.0353395		
245.361	0.0406775	245.361	0.0335284	245.361	0.0336927		
251.221	0.026311	251.221	0.0319005	251.221	0.0320532		
257.08	0.0315875	257.08	0.0303822	257.08	0.0305242		
262.939	0.0403532	262.939	0.0289641	262.939	0.0290963		
269.165	0.0251358	269.165	0.0275577	269.165	0.0276803		
275.391	0.0271969	275.391	0.0262459	275.391	0.0263597		
281.982	0.0257102	281.982	0.024951	281.982	0.0250564		
288.574	0.0235193	288.574	0.0237445	288.574	0.0238422		
295.166	0.0081636	295.166	0.0226187	295.166	0.0227093		
302.124	0.0161309	302.124	0.0215104	302.124	0.0215942		
309.082	0.0226415	309.082	0.0204772	309.082	0.0205548		
316.406	0.0180204	316.406	0.0194636	316.406	0.0195353		
323.73	0.0362181	323.73	0.0185193	323.73	0.0185856		
331.421	0.00466621	331.421	0.0175959	331.421	0.0176571		
339.111	0.0113833	339.111	0.016736	339.111	0.0167925		
347.168	0.0144546	347.168	0.0158974	347.168	0.0159495		
355.225	0.0154299	355.225	0.0151168	355.225	0.0151649		
363.281	0.0131263	363.281	0.0143891	363.281	0.0144336		
372.07	0.0146334	372.07	0.0136504	372.07	0.0136913		
380.493	0.0109137	380.493	0.0129916	380.493	0.0130294		
389.648	0.0134241	389.648	0.0123253	389.648	0.01236		
398.804	0.0237299	398.804	0.0117062	398.804	0.0117381		
407.959	0.0195897	407.959	0.01113	407.959	0.0111594		
417.48	0.00633815	417.48	0.0105723	417.48	0.0105994		
427.368	0.0209433	427.368	0.0100341	427.368	0.0100589		
437.256	0.0162787	437.256	0.00953372	437.256	0.0095566		
447.51	0.0045635	447.51	0.00905127	447.51	0.0090723		
457.764	0.00566867	457.764	0.00860264	457.764	0.00862198		
468.75	0.0178075	468.75	0.00815608	468.75	0.00817382		
479.736	0.0045925	479.736	0.00774165	479.736	0.00775793		
490.723	0.00984046	490.723	0.00735643	490.723	0.0073714		
502.441	0.00780555	502.441	0.00697481	502.441	0.00698853		
514.16	0.012364	514.16	0.00662068	514.16	0.00663327		
525.879	0.0138478	525.879	0.00629155	525.879	0.00630313		
538.33	0.0126541	538.33	0.00596677	538.33	0.00597737		
550.781	0.011997	550.781	0.00566532	550.781	0.00567505		
563.599	0.00908637	563.599	0.00537716	563.599	0.00538609		
576.782	0.0244066	576.782	0.00510208	576.782	0.00511027		
590.332	0.0204762	590.332	0.00483982	590.332	0.00484731		
604.248	0.031404	604.248	0.00459005	604.248	0.00459692		
618.53	0.0155201	618.53	0.00435244	618.53	0.00435873		
632.813	0.00836389	632.813	0.00413204	632.813	0.00413781		
647.461	0.0196974	647.461	0.00392223	647.461	0.00392751		
662.842	0.0128374	662.842	0.00371798	662.842	0.00372281		
678.223	0.0136734	678.223	0.00352865	678.223	0.00353308		
693.97	0.00224807	693.97	0.00334883	693.97	0.00335289		
710.449	0.0181099	710.449	0.00317443	710.449	0.00317813		
726.929	0.00892895	726.929	0.00301279	726.929	0.00301619		
743.774	0.0174767	743.774	0.00285953	743.774	0.00286264		
761.353	0.00126986	761.353	0.0027113	761.353	0.00271414		
778.931	0.00474703	778.931	0.00257389	778.931	0.0025765		
797.241	0.0043484	797.241	0.00244119	797.241	0.00244357		
815.918	0.0152709	815.918	0.00231577	815.918	0.00231795		
834.961	0.00350811	834.961	0.00219725	834.961	0.00219924		
854.37	0.0132052	854.37	0.00208525	854.37	0.00208708		
874.512	0.00758747	874.512	0.00197754	874.512	0.00197921		
895.02	0.0125292	895.02	0.00187594	895.02	0.00187747		
915.894	0.00885811	915.894	0.0017801	915.894	0.00178149		
937.134	0.00763167	937.134	0.00168966	937.134	0.00169094		
959.106	0.00140137	959.106	0.00160294	959.106	0.00160411		
981.445	0.00510634	981.445	0.0015212	981.445	0.00152227		
1004.52	0.00526017	1004.52	0.00144296	1004.52	0.00144394		
1027.95	0.00635161	1027.95	0.00136929	1027.95	0.00137018		
1052.12	0.00499795	1052.12	0.00129887	1052.12	0.00129968		
1076.66	0.00661416	1076.66	0.0012326	1076.66	0.00123335		
1101.93	0.0068523	1101.93	0.00116933	1101.93	0.00117001		
1127.56	0.0047341	1127.56	0.00110981	1127.56	0.00111043		
1153.93	0.015158	1153.93	0.00105304	1153.93	0.00105361		
1181.03	0.00380669	1181.03	0.000998935	1181.03	0.000999457		
1208.5	0.00646961	1208.5	0.000948085	1208.5	0.000948563		
1236.69	0.00702646	1236.69	0.000899654	1236.69	0.000900091		
1265.63	0.00625575	1265.63	0.000853566	1265.63	0.000853965		
1295.29	0.0066844	1295.29	0.00080974	1295.29	0.000810104		
1325.32	0.00252442	1325.32	0.000768574	1325.32	0.000768908		
1356.45	0.0105909	1356.45	0.000728984	1356.45	0.000729288		
1388.31	0.00410717	1388.31	0.000691402	1388.31	0.00069168		
1420.53	0.00994942	1420.53	0.000656131	1420.53	0.000656385		
